#PL map scale				Raman　Line			G (eV)『G』	0.197	D (eV)『D』	1208.64+53.6 *Eex (eV)			←測定HiPcoスペクトルから算出
#ex nm	Rayleigh eV	D cm	D eV	G nm	2D nm	2G nm	G+2D nm	4D nm	2G+2D nm	G+4D nm	6D nm		HiPco_G-band_488_514_633.ngp
500	2.48	1341.568	0.166354432	543.1449847	577.4717639	594.4391179	635.8025103	683.3528681	707.2413557	766.5761559	836.7786299		
503	2.465208748	1340.775189	0.166256123	546.6868962	581.4235638	598.6842232	640.5962916	688.8183792	713.1779465	773.4606905	844.8754177		
506	2.450592885	1339.991779	0.166158981	550.232479	585.3819945	602.9389719	645.4047697	694.3056443	719.1428597	780.3861456	853.0315974		
509	2.436149312	1339.217603	0.166062983	553.781739	589.3470725	607.2033972	650.2280122	699.8147935	725.1362985	787.3528871	861.2478249		
512	2.421875	1338.4525	0.16596811	557.3346817	593.3188148	611.4775319	655.0660872	705.3459581	731.1584679	794.3612854	869.5247656		
515	2.40776699	1337.696311	0.165874343	560.891313	597.2972381	615.7614093	659.9190633	710.8992702	737.209575	801.4117151	877.8630951		
518	2.393822394	1336.94888	0.165781661	564.4516386	601.2823593	620.0550628	664.7870095	716.4748631	743.289829	808.5045555	886.2634989		
521	2.380038388	1336.210058	0.165690047	568.0156643	605.2741953	624.3585258	669.6699949	722.0728713	749.3994409	815.6401905	894.7266726		
524	2.366412214	1335.479695	0.165599482	571.5833958	609.2727631	628.6718321	674.5680896	727.69343	755.5386239	822.8190085	903.2533226		
527	2.352941176	1334.757647	0.165509948	575.1548389	613.2780797	632.9950153	679.4813637	733.336676	761.7075931	830.0414028	911.8441657		
530	2.339622642	1334.043774	0.165421428	578.7299994	617.2901623	637.3281095	684.4098879	739.0027467	767.906566	837.3077712	920.4999294		
533	2.326454034	1333.337936	0.165333904	582.3088831	621.309028	641.6711489	689.3537333	744.6917811	774.1357618	844.6185167	929.2213525		
536	2.313432836	1332.64	0.16524736	585.8914958	625.3346941	646.0241676	694.3129714	750.4039189	780.3954022	851.9740469	938.009185		
539	2.300556586	1331.949833	0.165161779	589.4778434	629.3671777	650.3872001	699.2876743	756.1393012	786.6857109	859.3747748	946.8641882		
542	2.287822878	1331.267306	0.165077146	593.0679317	633.4064962	654.760281	704.2779145	761.8980702	793.0069139	866.8211181	955.7871352
545	2.275229358	1330.592294	0.164993444	596.6617666	637.4526671	659.1434451	709.2837647	767.6803691	799.3592393	874.3134999	964.7788111
548	2.262773723	1329.924672	0.164910659	600.2593539	641.5057077	663.5367273	714.3052984	773.4863426	805.7429175	881.8523484	973.840013
551	2.250453721	1329.264319	0.164828776	603.8606995	645.5656357	667.9401626	719.3425894	779.3161362	812.1581813	889.4380974	982.9715503
554	2.238267148	1328.611119	0.164747779	607.4658093	649.6324684	672.3537863	724.395712	785.1698969	818.6052655	897.0711858	992.1742453
557	2.226211849	1327.964955	0.164667654	611.0746892	653.7062237	676.7776338	729.4647409	791.0477729	825.0844076	904.7520582	1001.448933
560	2.214285714	1327.325714	0.164588389	614.6873451	657.7869191	681.2117407	734.5497513	796.9499133	831.5958473	912.4811646	1010.796461
563	2.202486679	1326.693286	0.164509967	618.303783	661.8745725	685.6561426	739.650819	802.8764688	838.1398266	920.2589609	1020.217692
566	2.190812721	1326.067562	0.164432378	621.9240087	665.9692016	690.1108756	744.7680202	808.8275912	844.7165902	928.0859085	1029.7135
569	2.179261863	1325.448436	0.164355606	625.5480283	670.0708243	694.5759755	749.9014314	814.8034336	851.3263849	935.962475	1039.284775
572	2.167832168	1324.835804	0.16427964	629.1758478	674.1794585	699.0514788	755.0511299	820.8041502	857.9694603	943.8891335	1048.932419
575	2.156521739	1324.229565	0.164204466	632.807473	678.2951223	703.5374217	760.2171933	826.8298968	864.6460683	951.8663635	1058.65735
578	2.14532872	1323.629619	0.164130073	636.44291	682.4178337	708.0338408	765.3996996	832.8808302	871.3564635	959.8946505	1068.460501
581	2.134251291	1323.035869	0.164056448	640.0821648	686.5476108	712.540773	770.5987276	838.9571088	878.1009029	967.9744862	1078.34282
584	2.123287671	1322.448219	0.163983579	643.7252434	690.6844717	717.058255	775.8143564	845.058892	884.8796465	976.1063688	1088.305268
587	2.112436116	1321.866576	0.163911455	647.3721518	694.8284348	721.5863241	781.0466656	851.1863409	891.6929564	984.2908027	1098.348826
590	2.101694915	1321.290847	0.163840065	651.0228961	698.9795183	726.1250174	786.2957353	857.3396176	898.5410978	992.5282991	1108.474487
593	2.091062395	1320.720944	0.163769397	654.6774824	703.1377407	730.6743723	791.5616462	863.5188859	905.4243385	1000.819375	1118.683262
596	2.080536913	1320.156779	0.163699441	658.3359166	707.3031202	735.2344266	796.8444796	869.7243107	912.3429491	1009.164557	1128.976178
599	2.070116861	1319.598264	0.163630185	661.998205	711.4756755	739.805218	802.144317	875.9560585	919.2972027	1017.564373	1139.354281
602	2.059800664	1319.045316	0.163561619	665.6643535	715.6554251	744.3867844	807.4612408	882.2142972	926.2873757	1026.019365	1149.818633
605	2.049586777	1318.497851	0.163493734	669.3343683	719.8423876	748.979164	812.7953337	888.4991959	933.313747	1034.530075	1160.370312
608	2.039473684	1317.955789	0.163426518	673.0082555	724.0365817	753.5823951	818.1466789	894.8109255	940.3765984	1043.097059	1171.010417
611	2.029459902	1317.419051	0.163359962	676.6860212	728.2380261	758.1965162	823.5153604	901.1496581	947.476215	1051.720874	1181.740064
614	2.019543974	1316.887557	0.163294057	680.3676716	732.4467397	762.8215661	828.9014625	907.5155674	954.6128844	1060.402089	1192.560387
617	2.009724473	1316.361232	0.163228793	684.0532129	736.6627414	767.4575836	834.3050701	913.9088285	961.7868975	1069.141278	1203.472542
620	2	1315.84	0.16316416	687.7426511	740.88605	772.1046077	839.7262687	920.3296181	968.9985481	1077.939025	1214.477703
623	1.990369181	1315.323788	0.16310015	691.4359926	745.1166847	776.7626777	845.1651444	926.7781144	976.2481333	1086.79592	1225.577062
626	1.980830671	1314.812524	0.163036753	695.1332434	749.3546644	781.4318331	850.6217838	933.2544971	983.5359532	1095.712561	1236.771836
629	1.971383148	1314.306137	0.162973961	698.8344099	753.6000083	786.1121134	856.096274	939.7589474	990.862311	1104.689555	1248.06326
632	1.962025316	1313.804557	0.162911765	702.5394981	757.8527357	790.8035585	861.5887027	946.2916483	998.2275132	1113.727516	1259.45259
635	1.952755906	1313.307717	0.162850157	706.2485144	762.1128659	795.5062083	867.0991583	952.8527842	1005.63187	1122.827069	1270.941106
638	1.943573668	1312.815549	0.162789128	709.9614651	766.3804181	800.220103	872.6277297	959.4425411	1013.075693	1131.988844	1282.53011
641	1.934477379	1312.327988	0.16272867	713.6783563	770.6554117	804.9452831	878.1745064	966.0611068	1020.5593	1141.213483	1294.220924
644	1.925465839	1311.844969	0.162668776	717.3991943	774.9378663	809.6817891	883.7395783	972.7086705	1028.083011	1150.501634	1306.014898
647	1.916537867	1311.36643	0.162609437	721.1239855	779.2278015	814.4296617	889.3230363	979.3854233	1035.647148	1159.853955	1317.913402
650	1.907692308	1310.892308	0.162550646	724.8527362	783.5252367	819.188942	894.9249715	986.0915578	1043.252039	1169.271114	1329.917832
653	1.898928025	1310.422542	0.162492395	728.5854526	787.8301918	823.959671	900.5454759	992.8272685	1050.898013	1178.753788	1342.029608
656	1.890243902	1309.957073	0.162434677	732.3221411	792.1426865	828.7418903	906.1846419	999.5927513	1058.585404	1188.302662	1354.250179
659	1.881638847	1309.495842	0.162377484	736.062808	796.4627405	833.5356412	911.8425626	1006.388204	1066.314551	1197.918432	1366.581015
662	1.873111782	1309.038792	0.16232081	739.8074597	800.7903738	838.3409656	917.5193317	1013.213827	1074.085793	1207.601804	1379.023616
665	1.864661654	1308.585865	0.162264647	743.5561026	805.1256064	843.1579055	923.2150436	1020.06982	1081.899477	1217.353494	1391.579508
668	1.856287425	1308.137006	0.162208989	747.308743	809.4684582	847.986503	928.9297932	1026.956388	1089.755949	1227.174225	1404.250247
671	1.847988077	1307.692161	0.162153828	751.0653874	813.8189495	852.8268004	934.6636762	1033.873734	1097.655564	1237.064735	1417.037414
674	1.839762611	1307.251276	0.162099158	754.8260421	818.1771003	857.6788404	940.4167888	1040.822067	1105.598677	1247.02577	1429.942622
677	1.831610044	1306.814298	0.162044973	758.5907136	822.5429309	862.5426658	946.1892279	1047.801594	1113.585648	1257.058087	1442.967513
680	1.823529412	1306.381176	0.161991266	762.3594083	826.9164616	867.4183195	951.9810911	1054.812526	1121.616842	1267.162453	1456.113759
683	1.815519766	1305.951859	0.161938031	766.1321327	831.2977128	872.3058447	957.7924765	1061.855076	1129.692627	1277.339648	1469.383065
686	1.807580175	1305.526297	0.161885261	769.9088933	835.6867051	877.2052848	963.623483	1068.929458	1137.813375	1287.590462	1482.777167
689	1.799709724	1305.104441	0.161832951	773.6896964	840.0834588	882.1166836	969.4742103	1076.035888	1145.979464	1297.915696	1496.297833
692	1.791907514	1304.686243	0.161781094	777.4745487	844.4879946	887.0400847	975.3447583	1083.174585	1154.191273	1308.316165	1509.946867
695	1.784172662	1304.271655	0.161729685	781.2634566	848.9003333	891.9755323	981.2352282	1090.345768	1162.449188	1318.792692	1523.726104
698	1.776504298	1303.86063	0.161678718	785.0564266	853.3204955	896.9230705	987.1457214	1097.54966	1170.753599	1329.346116	1537.637416
701	1.768901569	1303.453124	0.161628187	788.8534653	857.7485021	901.882744	993.0763403	1104.786486	1179.104898	1339.977287	1551.682713
704	1.761363636	1303.049091	0.161578087	792.6545793	862.1843739	906.8545974	999.0271878	1112.056471	1187.503485	1350.687066	1565.863938
707	1.753889675	1302.648487	0.161528412	796.459775	866.628132	911.8386757	1004.998367	1119.359845	1195.949762	1361.47633	1580.183076
710	1.746478873	1302.251268	0.161479157	800.2690591	871.0797974	916.8350238	1010.989984	1126.696837	1204.444136	1372.345965	1594.642146
713	1.739130435	1301.857391	0.161430317	804.0824382	875.5393912	921.8436874	1017.002142	1134.067681	1212.98702	1383.296873	1609.243211
716	1.731843575	1301.466816	0.161381885	807.8999188	880.0069347	926.8647118	1023.034948	1141.47261	1221.578829	1394.32997	1623.988373
719	1.724617524	1301.079499	0.161333858	811.7215077	884.482449	931.898143	1029.088507	1148.911863	1230.219987	1405.446184	1638.879775
722	1.717451524	1300.695402	0.16128623	815.5472113	888.9659556	936.944027	1035.162929	1156.385678	1238.910918	1416.646457	1653.919604
725	1.710344828	1300.314483	0.161238996	819.3770365	893.4574759	942.00241	1041.258319	1163.894297	1247.652055	1427.931748	1669.11009
728	1.703296703	1299.936703	0.161192151	823.2109898	897.9570313	947.0733386	1047.374788	1171.437964	1256.443833	1439.303027	1684.453508
731	1.69630643	1299.562025	0.161145691	827.0490779	902.4646435	952.1568594	1053.512445	1179.016923	1265.286695	1450.761281	1699.95218
734	1.689373297	1299.190409	0.161099611	830.8913075	906.9803342	957.2530195	1059.671399	1186.631425	1274.181085	1462.307513	1715.608473
737	1.682496608	1298.821818	0.161053905	834.7376853	911.504125	962.3618661	1065.851763	1194.281718	1283.127457	1473.942738	1731.424805
740	1.675675676	1298.456216	0.161008571	838.5882181	916.0360377	967.4834465	1072.053647	1201.968057	1292.126268	1485.66799	1747.403642
743	1.668909825	1298.093567	0.160963602	842.4429125	920.5760944	972.6178085	1078.277165	1209.690696	1301.177979	1497.484318	1763.547501
746	1.662198391	1297.733834	0.160918995	846.3017754	925.1243169	977.7649999	1084.52243	1217.449894	1310.283058	1509.392787	1779.858952
749	1.655540721	1297.376983	0.160874746	850.1648135	929.6807272	982.9250688	1090.789556	1225.24591	1319.44198	1521.394479	1796.340619
752	1.64893617	1297.022979	0.160830849	854.0320335	934.2453476	988.0980638	1097.078658	1233.079008	1328.655222	1533.490494	1812.995179
755	1.642384106	1296.671788	0.160787302	857.9034423	938.8182002	993.2840334	1103.389851	1240.949452	1337.92327	1545.681946	1829.825368
758	1.635883905	1296.323377	0.160744099	861.7790467	943.3993074	998.4830265	1109.723254	1248.85751	1347.246614	1557.969971	1846.833979
761	1.629434954	1295.977714	0.160701236	865.6588535	947.9886914	1003.695092	1116.078982	1256.803452	1356.62575	1570.35572	1864.023863
764	1.623036649	1295.634764	0.160658711	869.5428695	952.5863747	1008.92028	1122.457154	1264.787552	1366.061181	1582.840364	1881.397935
767	1.616688396	1295.294498	0.160616518	873.4311016	957.19238	1014.158639	1128.857889	1272.810084	1375.553415	1595.425092	1898.95917
770	1.61038961	1294.956883	0.160574654	877.3235567	961.8067297	1019.41022	1135.281308	1280.871328	1385.102967	1608.111112	1916.71061
773	1.604139715	1294.621889	0.160533114	881.2202416	966.4294466	1024.675072	1141.72753	1288.971563	1394.710357	1620.899653	1934.655361
776	1.597938144	1294.289485	0.160491896	885.1211633	971.0605535	1029.953246	1148.196678	1297.111074	1404.376112	1633.791962	1952.796598
779	1.591784339	1293.959641	0.160450995	889.0263286	975.7000732	1035.244793	1154.688875	1305.290147	1414.100766	1646.789306	1971.137566
782	1.585677749	1293.632327	0.160410409	892.9357445	980.3480287	1040.549763	1161.204242	1313.509071	1423.884859	1659.892976	1989.681583
785	1.579617834	1293.307516	0.160370132	896.8494179	985.0044429	1045.868208	1167.742906	1321.768137	1433.728937	1673.104281	2008.432037
788	1.573604061	1292.985178	0.160330162	900.7673558	989.6693391	1051.200179	1174.304991	1330.067641	1443.633555	1686.424552	2027.392397
791	1.567635904	1292.665284	0.160290495	904.6895652	994.3427404	1056.545728	1180.890622	1338.407881	1453.599271	1699.855144	2046.566207
794	1.561712846	1292.347809	0.160251128	908.6160531	999.0246701	1061.904906	1187.499928	1346.789157	1463.626653	1713.397432	2065.95709
797	1.555834379	1292.032723	0.160212058	912.5468263	1003.715152	1067.277766	1194.133035	1355.211772	1473.716276	1727.052817	2085.568756
800	1.55	1291.72	0.16017328	916.4818921	1008.414208	1072.66436	1200.790073	1363.676034	1483.86872	1740.82272	2105.404996
803	1.544209215	1291.409614	0.160134792	920.4212574	1013.121864	1078.064741	1207.471172	1372.182252	1494.084574	1754.708588	2125.469689
806	1.538461538	1291.101538	0.160096591	924.3649292	1017.838141	1083.478962	1214.176462	1380.730738	1504.364434	1768.711892	2145.766806
809	1.532756489	1290.795748	0.160058673	928.3129146	1022.563065	1088.907077	1220.906074	1389.321809	1514.708903	1782.834129	2166.300407
812	1.527093596	1290.492217	0.160021035	932.2652208	1027.296659	1094.349138	1227.660142	1397.955784	1525.118593	1797.07682	2187.074652
815	1.521472393	1290.19092	0.159983674	936.2218547	1032.038946	1099.8052	1234.438798	1406.632984	1535.594122	1811.441513	2208.093794
818	1.515892421	1289.891834	0.159946587	940.1828236	1036.789951	1105.275316	1241.242178	1415.353735	1546.136117	1825.929782	2229.362189
821	1.510353228	1289.594933	0.159909772	944.1481345	1041.549698	1110.759542	1248.070417	1424.118366	1556.745213	1840.543228	2250.884299
824	1.504854369	1289.300194	0.159873224	948.1177947	1046.318211	1116.257931	1254.923651	1432.927209	1567.422051	1855.283482	2272.664689
827	1.499395405	1289.007594	0.159836942	952.0918111	1051.095515	1121.77054	1261.802019	1441.7806	1578.167284	1870.1522	2294.708038
830	1.493975904	1288.717108	0.159800921	956.0701911	1055.881632	1127.297422	1268.705657	1450.678876	1588.98157	1885.15107	2317.019136
833	1.488595438	1288.428715	0.159765161	960.0529418	1060.676589	1132.838633	1275.634707	1459.62238	1599.865577	1900.281807	2339.602892
836	1.483253589	1288.142392	0.159729657	964.0400704	1065.480409	1138.39423	1282.589308	1468.611459	1610.819981	1915.546159	2362.464335
839	1.47794994	1287.858117	0.159694406	968.0315841	1070.293117	1143.964268	1289.569602	1477.64646	1621.845469	1930.945904	2385.608617
842	1.472684086	1287.575867	0.159659408	972.0274903	1075.114737	1149.548804	1296.575731	1486.727738	1632.942733	1946.48285	2409.04102
845	1.467455621	1287.295621	0.159624657	976.027796	1079.945296	1155.147894	1303.60784	1495.855648	1644.112477	1962.158839	2432.766958
848	1.462264151	1287.017358	0.159590152	980.0325087	1084.784816	1160.761595	1310.666074	1505.03055	1655.355414	1977.975747	2456.791982
851	1.457109283	1286.741058	0.159555891	984.0416355	1089.633324	1166.389965	1317.750577	1514.252809	1666.672265	1993.935482	2481.121783
854	1.451990632	1286.466698	0.159521871	988.0551839	1094.490845	1172.033062	1324.861498	1523.522792	1678.063762	2010.039987	2505.762197
857	1.446907818	1286.194259	0.159488088	992.0731611	1099.357403	1177.690942	1331.998983	1532.840871	1689.530645	2026.291242	2530.71921
860	1.441860465	1285.923721	0.159454541	996.0955744	1104.233023	1183.363665	1339.163183	1542.20742	1701.073666	2042.69126	2555.998965
863	1.436848204	1285.655064	0.159421228	1000.122431	1109.117732	1189.051288	1346.354246	1551.622818	1712.693585	2059.242096	2581.607762
866	1.43187067	1285.388268	0.159388145	1004.153739	1114.011555	1194.753871	1353.572326	1561.08745	1724.391173	2075.945837	2607.552068
869	1.426927503	1285.123314	0.159355291	1008.189505	1118.914516	1200.471472	1360.817574	1570.601702	1736.167211	2092.804614	2633.83852
872	1.422018349	1284.860183	0.159322663	1012.229736	1123.826643	1206.204152	1368.090144	1580.165966	1748.022493	2109.820594	2660.47393
875	1.417142857	1284.598857	0.159290258	1016.274441	1128.747959	1211.951969	1375.390191	1589.780636	1759.957819	2126.995987	2687.465293
878	1.412300683	1284.339317	0.159258075	1020.323626	1133.678492	1217.714984	1382.717871	1599.446112	1771.974003	2144.333043	2714.819794
881	1.407491487	1284.081544	0.159226111	1024.377299	1138.618267	1223.493257	1390.073341	1609.162799	1784.071871	2161.834056	2742.544811
884	1.402714932	1283.82552	0.159194365	1028.435468	1143.567311	1229.286849	1397.456759	1618.931103	1796.252257	2179.501363	2770.647921
887	1.397970688	1283.571229	0.159162832	1032.498139	1148.525648	1235.09582	1404.868285	1628.751439	1808.516008	2197.337345	2799.136914
890	1.393258427	1283.318652	0.159131513	1036.565321	1153.493307	1240.920233	1412.308081	1638.624221	1820.863985	2215.344428	2828.019791
893	1.388577828	1283.067772	0.159100404	1040.63702	1158.470311	1246.760149	1419.776307	1648.549873	1833.297056	2233.525089	2857.304779
896	1.383928571	1282.818571	0.159069503	1044.713245	1163.45669	1252.615629	1427.273127	1658.528819	1845.816106	2251.881847	2887.000332
899	1.379310345	1282.571034	0.159038808	1048.794004	1168.452468	1258.486736	1434.798706	1668.561489	1858.422028	2270.417274	2917.115147
902	1.374722838	1282.325144	0.159008318	1052.879302	1173.457672	1264.373533	1442.353209	1678.64832	1871.11573	2289.133992	2947.658166
905	1.370165746	1282.080884	0.15897803	1056.969149	1178.472329	1270.276083	1449.936804	1688.78975	1883.898133	2308.034673	2978.638586
908	1.365638767	1281.838238	0.158947941	1061.063551	1183.496466	1276.194449	1457.549659	1698.986225	1896.77017	2327.122042	3010.065872
911	1.361141603	1281.59719	0.158918052	1065.162517	1188.53011	1282.128694	1465.191944	1709.238193	1909.732785	2346.39888	3041.949763
914	1.356673961	1281.357724	0.158888358	1069.266054	1193.573287	1288.078883	1472.863829	1719.546108	1922.78694	2365.868022	3074.300281
917	1.352235551	1281.119826	0.158858858	1073.37417	1198.626026	1294.04508	1480.565487	1729.910431	1935.933606	2385.532359	3107.127747
920	1.347826087	1280.883478	0.158829551	1077.486871	1203.688352	1300.02735	1488.297092	1740.331625	1949.173771	2405.394842	3140.442786
923	1.343445287	1280.648667	0.158800435	1081.604167	1208.760294	1306.025757	1496.058818	1750.81016	1962.508436	2425.458482	3174.256342
926	1.339092873	1280.415378	0.158771507	1085.726065	1213.841879	1312.040368	1503.850843	1761.346511	1975.938617	2445.726349	3208.579689
929	1.334768568	1280.183595	0.158742766	1089.852572	1218.933134	1318.071247	1511.673343	1771.941156	1989.465342	2466.201577	3243.424444
932	1.330472103	1279.953305	0.15871421	1093.983696	1224.034087	1324.118461	1519.526497	1782.594581	2003.089658	2486.887366	3278.802578
935	1.326203209	1279.724492	0.158685837	1098.119444	1229.144766	1330.182077	1527.410488	1793.307278	2016.812623	2507.786979	3314.726433
938	1.32196162	1279.497143	0.158657646	1102.259826	1234.265198	1336.262161	1535.325495	1804.079741	2030.635314	2528.90375	3351.208733
941	1.317747078	1279.271243	0.158629634	1106.404848	1239.395411	1342.35878	1543.271703	1814.912472	2044.558821	2550.241082	3388.262603
944	1.313559322	1279.04678	0.158601801	1110.554518	1244.535435	1348.472002	1551.249297	1825.805979	2058.584251	2571.802446	3425.901581
947	1.309398099	1278.823738	0.158574144	1114.708845	1249.685296	1354.601895	1559.258463	1836.760774	2072.712728	2593.591392	3464.139636
950	1.305263158	1278.602105	0.158546661	1118.867835	1254.845023	1360.748527	1567.299389	1847.777377	2086.945391	2615.61154	3502.991186
953	1.30115425	1278.381868	0.158519352	1123.031497	1260.014644	1366.911967	1575.372263	1858.856311	2101.283397	2637.866591	3542.471114
956	1.29707113	1278.163013	0.158492214	1127.199839	1265.194188	1373.092284	1583.477278	1869.998107	2115.72792	2660.360323	3582.594789
959	1.293013556	1277.945527	0.158465245	1131.372868	1270.383684	1379.289547	1591.614624	1881.203302	2130.280151	2683.096597	3623.378087
962	1.288981289	1277.729397	0.158438445	1135.550593	1275.583159	1385.503826	1599.784497	1892.472439	2144.9413	2706.079356	3664.837407
965	1.284974093	1277.514611	0.158411812	1139.733021	1280.792644	1391.735191	1607.98709	1903.806065	2159.712594	2729.312632	3706.9897
968	1.280991736	1277.301157	0.158385343	1143.92016	1286.012167	1397.983713	1616.222603	1915.204738	2174.595279	2752.800543	3749.852485
971	1.277033986	1277.089022	0.158359039	1148.112019	1291.241756	1404.249463	1624.491232	1926.669017	2189.590619	2776.547297	3793.443879
974	1.273100616	1276.878193	0.158332896	1152.308605	1296.481442	1410.532512	1632.793178	1938.199471	2204.699899	2800.557197	3837.782618
977	1.269191402	1276.668659	0.158306914	1156.509927	1301.731253	1416.832931	1641.128643	1949.796675	2219.924422	2824.834642	3882.888089
980	1.265306122	1276.460408	0.158281091	1160.715991	1306.991219	1423.150794	1649.49783	1961.46121	2235.265512	2849.384129	3928.780353
983	1.261444557	1276.253428	0.158255425	1164.926807	1312.261369	1429.486172	1657.900945	1973.193664	2250.724513	2874.210255	3975.480177
986	1.257606491	1276.047708	0.158229916	1169.142383	1317.541732	1435.839139	1666.338194	1984.994632	2266.302789	2899.317724	4023.009066
989	1.253791709	1275.843236	0.158204561	1173.362726	1322.83234	1442.209767	1674.809785	1996.864716	2282.001726	2924.711345	4071.389296
992	1.25	1275.64	0.15817936	1177.587844	1328.133221	1448.598131	1683.315928	2008.804525	2297.822731	2950.396038	4120.643948
995	1.246231156	1275.43799	0.158154311	1181.817746	1333.444405	1455.004304	1691.856836	2020.814675	2313.767234	2976.376837	4170.796943
998	1.24248497	1275.237194	0.158129412	1186.05244	1338.765922	1461.428362	1700.432722	2032.89579	2329.836687	3002.658892	4221.873086
1001	1.238761239	1275.037602	0.158104663	1190.291934	1344.097803	1467.870379	1709.043801	2045.0485	2346.032563	3029.247472	4273.898101
1004	1.235059761	1274.839203	0.158080061	1194.536236	1349.440078	1474.330431	1717.690291	2057.273444	2362.356361	3056.147973	4326.898678
1007	1.231380338	1274.641986	0.158055606	1198.785355	1354.792777	1480.808593	1726.372409	2069.571267	2378.809602	3083.365915	4380.902516
1010	1.227722772	1274.445941	0.158031297	1203.039298	1360.155932	1487.304943	1735.090378	2081.942623	2395.393832	3110.906951	4435.938374
1013	1.224086871	1274.251056	0.158007131	1207.298073	1365.529571	1493.819555	1743.844419	2094.388174	2412.110622	3138.776867	4492.036121
1016	1.220472441	1274.057323	0.157983108	1211.56169	1370.913727	1500.352509	1752.634756	2106.90859	2428.961567	3166.981591	4549.226789
1019	1.216879293	1273.86473	0.157959227	1215.830156	1376.30843	1506.90388	1761.461617	2119.504547	2445.948289	3195.527191	4607.542631
1022	1.213307241	1273.673268	0.157935485	1220.103479	1381.713712	1513.473748	1770.325228	2132.176732	2463.072435	3224.419886	4667.017183
1025	1.209756098	1273.482927	0.157911883	1224.381668	1387.129603	1520.06219	1779.225821	2144.925838	2480.33568	3253.666045	4727.685325
1028	1.206225681	1273.293696	0.157888418	1228.664731	1392.556134	1526.669286	1788.163626	2157.752568	2497.739726	3283.272192	4789.583353
1031	1.20271581	1273.105567	0.15786509	1232.952677	1397.993337	1533.295114	1797.138879	2170.657634	2515.286302	3313.245018	4852.749049
1034	1.199226306	1272.91853	0.157841898	1237.245513	1403.441244	1539.939755	1806.151814	2183.641754	2532.977166	3343.591375	4917.221758
1037	1.195756991	1272.732575	0.157818839	1241.543249	1408.899887	1546.603289	1815.202669	2196.705658	2550.814105	3374.318291	4983.042471
1040	1.192307692	1272.547692	0.157795914	1245.845892	1414.369296	1553.285797	1824.291685	2209.850084	2568.798937	3405.432969	5050.253911
1043	1.188878236	1272.363873	0.15777312	1250.153451	1419.849504	1559.987359	1833.419103	2223.075777	2586.933508	3436.942795	5118.900626
1046	1.185468451	1272.181109	0.157750458	1254.465935	1425.340542	1566.708058	1842.585167	2236.383495	2605.219696	3468.855346	5189.029087
1049	1.18207817	1271.99939	0.157727924	1258.783352	1430.842444	1573.447975	1851.790123	2249.774002	2623.65941	3501.178392	5260.687792
1052	1.178707224	1271.818707	0.15770552	1263.105709	1436.355241	1580.207193	1861.034219	2263.248073	2642.254593	3533.919904	5333.92738
1055	1.17535545	1271.639052	0.157683242	1267.433017	1441.878966	1586.985795	1870.317705	2276.806494	2661.007218	3567.088062	5408.800749
1058	1.172022684	1271.460416	0.157661092	1271.765283	1447.413651	1593.783864	1879.640834	2290.450058	2679.919293	3600.69126	5485.363185
1061	1.168708765	1271.28279	0.157639066	1276.102516	1452.959328	1600.601485	1889.003859	2304.179571	2698.992861	3634.738114	5563.672493
1064	1.165413534	1271.106165	0.157617165	1280.444724	1458.516032	1607.438741	1898.407039	2317.995846	2718.23	3669.237467	5643.78915
1067	1.162136832	1270.930534	0.157595386	1284.791916	1464.083793	1614.295719	1907.850631	2331.89971	2737.632822	3704.198401	5725.776456
1070	1.158878505	1270.755888	0.15757373	1289.144101	1469.662647	1621.172503	1917.334896	2345.891997	2757.203478	3739.630243	5809.700702
1073	1.155638397	1270.582218	0.157552195	1293.501287	1475.252625	1628.069179	1926.860099	2359.973554	2776.944154	3775.542571	5895.631347
1076	1.152416357	1270.409517	0.15753078	1297.863482	1480.853761	1634.985834	1936.426503	2374.145237	2796.857075	3811.945225	5983.641214
1079	1.149212234	1270.237776	0.157509484	1302.230696	1486.466089	1641.922555	1946.034379	2388.407916	2816.944506	3848.848317	6073.806692
1082	1.146025878	1270.066987	0.157488306	1306.602938	1492.089641	1648.879429	1955.683995	2402.762468	2837.208751	3886.262237	6166.207959
1085	1.142857143	1269.897143	0.157467246	1310.980214	1497.724453	1655.856543	1965.375624	2417.209785	2857.652155	3924.197666	6260.929217
1088	1.139705882	1269.728235	0.157446301	1315.362536	1503.370557	1662.853988	1975.109542	2431.750769	2878.277104	3962.665585	6358.058952
1091	1.136571952	1269.560257	0.157425472	1319.74991	1509.027987	1669.87185	1984.886026	2446.386334	2899.086028	4001.677283	6457.690208
1094	1.13345521	1269.393199	0.157404757	1324.142347	1514.696779	1676.910221	1994.705354	2461.117405	2920.081398	4041.244374	6559.920884
1097	1.130355515	1269.227056	0.157384155	1328.539854	1520.376965	1683.96919	2004.567811	2475.94492	2941.265732	4081.378803	6664.854053
1100	1.127272727	1269.061818	0.157363665	1332.942441	1526.068581	1691.048847	2014.47368	2490.86983	2962.641593	4122.092861	6772.598313
1103	1.124206709	1268.89748	0.157343287	1337.350116	1531.771661	1698.149284	2024.423249	2505.893097	2984.21159	4163.399194	6883.268159
1106	1.121157324	1268.734033	0.15732302	1341.762888	1537.486239	1705.270592	2034.416808	2521.015697	3005.97838	4205.310823	6996.984388
1109	1.118124436	1268.57147	0.157302862	1346.180767	1543.21235	1712.412864	2044.454649	2536.238619	3027.944667	4247.841149	7113.874542
1112	1.115107914	1268.409784	0.157282813	1350.60376	1548.95003	1719.576192	2054.537066	2551.562863	3050.113209	4291.003976	7234.073381
1115	1.112107623	1268.248969	0.157262872	1355.031876	1554.699314	1726.760669	2064.664358	2566.989446	3072.486809	4334.813517	7357.723406
1118	1.109123435	1268.089016	0.157243038	1359.465126	1560.460236	1733.966389	2074.836825	2582.519395	3095.068328	4379.284417	7484.975418
1121	1.106155219	1267.92992	0.15722331	1363.903517	1566.232832	1741.193447	2085.05477	2598.153752	3117.860677	4424.431766	7615.989137
1124	1.103202847	1267.771673	0.157203687	1368.347058	1572.017137	1748.441938	2095.318498	2613.893575	3140.866822	4470.271118	7750.933863
1127	1.100266193	1267.614268	0.157184169	1372.795759	1577.813188	1755.711956	2105.628318	2629.739935	3164.089786	4516.818504	7889.989215
1130	1.097345133	1267.457699	0.157164755	1377.249629	1583.62102	1763.003598	2115.984541	2645.693915	3187.532648	4564.090457	8033.345921
1133	1.094439541	1267.301959	0.157145443	1381.708676	1589.440669	1770.316961	2126.387481	2661.756618	3211.198546	4612.104027	8181.206695
1136	1.091549296	1267.147042	0.157126233	1386.172909	1595.272171	1777.652142	2136.837455	2677.929157	3235.09068	4660.876806	8333.787192
1139	1.088674276	1266.992941	0.157107125	1390.642339	1601.115562	1785.009239	2147.334783	2694.212663	3259.212307	4710.426943	8491.317058
1142	1.085814361	1266.83965	0.157088117	1395.116972	1606.970879	1792.388349	2157.879786	2710.608282	3283.566751	4760.773173	8654.041083
1145	1.082969432	1266.687162	0.157069208	1399.59682	1612.838158	1799.789572	2168.472791	2727.117177	3308.1574	4811.934837	8822.220469
1148	1.080139373	1266.53547	0.157050398	1404.08189	1618.717436	1807.213008	2179.114127	2743.740524	3332.987705	4863.931907	8996.134233
1151	1.077324066	1266.38457	0.157031687	1408.572193	1624.60875	1814.658757	2189.804124	2760.479519	3358.061187	4916.785013	9176.080746
1154	1.074523397	1266.234454	0.157013072	1413.067736	1630.512137	1822.126918	2200.543117	2777.335372	3383.381437	4970.51547	9362.379448
1157	1.071737252	1266.085117	0.156994554	1417.56853	1636.427634	1829.617595	2211.331444	2794.309312	3408.952115	5025.145308	9555.372733
1160	1.068965517	1265.936552	0.156976132	1422.074584	1642.355278	1837.130888	2222.169446	2811.402584	3434.776955	5080.697297	9755.428055
1163	1.066208083	1265.788753	0.156957805	1426.585906	1648.295107	1844.6669	2233.057466	2828.61645	3460.859766	5137.194987	9962.940261
1166	1.063464837	1265.641715	0.156939573	1431.102506	1654.247158	1852.225735	2243.995852	2845.952191	3487.204432	5194.662733	10178.33419
1169	1.060735672	1265.495432	0.156921434	1435.624394	1660.211469	1859.807496	2254.984954	2863.411107	3513.814917	5253.125735	10402.06759
1172	1.058020478	1265.349898	0.156903387	1440.151578	1666.188078	1867.412288	2266.025125	2880.994514	3540.695263	5312.610073	10634.63433
1175	1.055319149	1265.205106	0.156885433	1444.684068	1672.177024	1875.040216	2277.116722	2898.703749	3567.849597	5373.142748	10876.56808
1178	1.052631579	1265.061053	0.156867571	1449.221874	1678.178343	1882.691386	2288.260105	2916.540168	3595.28213	5434.751718	11128.44638
1181	1.049957663	1264.917731	0.156849799	1453.765004	1684.192076	1890.365903	2299.455639	2934.505145	3622.997159	5497.465947	11390.89525
1184	1.047297297	1264.775135	0.156832117	1458.313467	1690.218259	1898.063876	2310.703689	2952.600076	3650.99907	5561.315447	11664.59436
1187	1.044650379	1264.63326	0.156814524	1462.867275	1696.256933	1905.785411	2322.004626	2970.826375	3679.29234	5626.331325	11950.28296
1190	1.042016807	1264.492101	0.156797021	1467.426435	1702.308135	1913.530617	2333.358825	2989.185479	3707.881541	5692.545837	12248.76648
1193	1.039396479	1264.351651	0.156779605	1471.990957	1708.371906	1921.299603	2344.766662	3007.678844	3736.77134	5759.992438	12560.92417
1196	1.036789298	1264.211906	0.156762276	1476.560851	1714.448283	1929.092479	2356.228518	3026.307948	3765.966503	5828.705839	12887.71772
1199	1.034195163	1264.072861	0.156745035	1481.136126	1720.537307	1936.909356	2367.744779	3045.074292	3795.471898	5898.722071	13230.20117
1202	1.031613977	1263.934509	0.156727879	1485.716792	1726.639017	1944.750343	2379.315832	3063.979397	3825.292494	5970.078539	13589.53227
1205	1.029045643	1263.796846	0.156710809	1490.302858	1732.753452	1952.615553	2390.942069	3083.024809	3855.433372	6042.814099	13966.98552
1208	1.026490066	1263.659868	0.156693824	1494.894334	1738.880653	1960.505099	2402.623887	3102.212095	3885.899717	6116.96912	14363.96733
1211	1.023947151	1263.523567	0.156676922	1499.491229	1745.020659	1968.419093	2414.361684	3121.542846	3916.696831	6192.585564	14782.03348
1214	1.021416804	1263.387941	0.156660105	1504.093553	1751.173511	1976.35765	2426.155864	3141.018678	3947.83013	6269.707062	15222.90954
1217	1.018898932	1263.252983	0.15664337	1508.701316	1757.339249	1984.320883	2438.006834	3160.641229	3979.305148	6348.379	15688.51464
1220	1.016393443	1263.118689	0.156626717	1513.314527	1763.517914	1992.308908	2449.915005	3180.412165	4011.127542	6428.648609	16180.98941
1223	1.013900245	1262.985053	0.156610147	1517.933196	1769.709546	2000.321841	2461.880793	3200.333174	4043.303096	6510.565056	16702.7289
1226	1.01141925	1262.852072	0.156593657	1522.557332	1775.914186	2008.359799	2473.904617	3220.405972	4075.837722	6594.179546	17256.42153
1229	1.008950366	1262.71974	0.156577248	1527.186946	1782.131875	2016.422899	2485.986899	3240.6323	4108.737462	6679.54543	17845.0954
1232	1.006493506	1262.588052	0.156560918	1531.822047	1788.362655	2024.511259	2498.128068	3261.013926	4142.008499	6766.718319	18472.17371
1235	1.004048583	1262.457004	0.156544669	1536.462644	1794.606566	2032.624998	2510.328555	3281.552647	4175.657154	6855.7562	19141.54139
1238	1.001615509	1262.326591	0.156528497	1541.108749	1800.863651	2040.764236	2522.588795	3302.250285	4209.689892	6946.719572	19857.62564
1241	0.999194198	1262.196809	0.156512404	1545.760369	1807.133951	2048.929094	2534.909229	3323.108691	4244.113327	7039.671577	20625.49395
1244	0.996784566	1262.067653	0.156496389	1550.417516	1813.417508	2057.119691	2547.2903	3344.129747	4278.934225	7134.678148	21450.97425
1247	0.994386528	1261.939118	0.156480451	1555.080199	1819.714363	2065.336151	2559.732459	3365.315362	4314.159511	7231.808167	22340.80306
1250	0.992	1261.8112	0.156464589	1559.748428	1826.02456	2073.578595	2572.236158	3386.667476	4349.79627	7331.133627	23302.80976
1253	0.9896249	1261.683895	0.156448803	1564.422212	1832.348141	2081.847148	2584.801854	3408.188059	4385.851754	7432.729817	24346.14758
1256	0.987261146	1261.557197	0.156433092	1569.101563	1838.685149	2090.141934	2597.430011	3429.879114	4422.333387	7536.675504	25481.58574
1259	0.984908658	1261.431104	0.156417457	1573.786489	1845.035625	2098.463077	2610.121094	3451.742674	4459.248769	7643.053143	26721.88255
1262	0.982567353	1261.30561	0.156401896	1578.477001	1851.399614	2106.810704	2622.875576	3473.780805	4496.605681	7751.949093	28082.26689
1265	0.980237154	1261.180711	0.156386408	1583.173108	1857.777157	2115.18494	2635.693932	3495.995606	4534.412093	7863.45385	29581.06662
1268	0.977917981	1261.056404	0.156370994	1587.874822	1864.1683	2123.585915	2648.576644	3518.389211	4572.676167	7977.662299	31240.53914
1271	0.975609756	1260.932683	0.156355653	1592.582151	1870.573085	2132.013755	2661.524197	3540.963786	4611.406264	8094.673982	33087.98415
1274	0.973312402	1260.809545	0.156340384	1597.295106	1876.991556	2140.46859	2674.537083	3563.721534	4650.610949	8214.59339	35157.25725
1277	0.971025842	1260.686985	0.156325186	1602.013696	1883.423757	2148.95055	2687.615797	3586.664694	4690.298999	8337.530271	37490.86362
1280	0.96875	1260.565	0.15631006	1606.737933	1889.869731	2157.459765	2700.760839	3609.795541	4730.47941	8463.599968	40142.90876
1283	0.966484801	1260.443585	0.156295005	1611.467826	1896.329524	2165.996368	2713.972716	3633.116388	4771.1614	8592.923775	43183.34565
1286	0.964230171	1260.322737	0.156280019	1616.203386	1902.80318	2174.56049	2727.251939	3656.629584	4812.354421	8725.629334	46704.23537
1289	0.961986036	1260.202452	0.156265104	1620.944621	1909.290743	2183.152264	2740.599024	3680.337521	4854.068162	8861.851049	50829.23019
1292	0.959752322	1260.082724	0.156250258	1625.691544	1915.792259	2191.771826	2754.014493	3704.242626	4896.31256	9001.73054	55728.39602
1295	0.957528958	1259.963552	0.15623548	1630.444164	1922.307772	2200.41931	2767.498872	3728.347371	4939.097805	9145.41714	61642.2446
1298	0.955315871	1259.844931	0.156220771	1635.20249	1928.837327	2209.094852	2781.052693	3752.654266	4982.434352	9293.068419	68922.42287
1301	0.95311299	1259.726856	0.15620613	1639.966535	1935.380971	2217.798588	2794.676495	3777.165865	5026.332925	9444.850767	78104.28826
1304	0.950920245	1259.609325	0.156191556	1644.736307	1941.938748	2226.530657	2808.370821	3801.884765	5070.804528	9600.940016	90044.90092
1307	0.948737567	1259.492334	0.156177049	1649.511817	1948.510705	2235.291197	2822.13622	3826.813606	5115.860455	9761.522119	106207.387
1310	0.946564885	1259.375878	0.156162609	1654.293076	1955.096887	2244.080347	2835.973246	3851.955076	5161.512299	9926.793892	129311.7064
1313	0.944402133	1259.259954	0.156148234	1659.080094	1961.697341	2252.898248	2849.882461	3877.311906	5207.771961	10096.96382	165053.2595
1316	0.94224924	1259.144559	0.156133925	1663.872881	1968.312113	2261.745041	2863.86443	3902.886874	5254.651661	10272.25291	227703.0918
1319	0.940106141	1259.029689	0.156119681	1668.671448	1974.941251	2270.620868	2877.919726	3928.682809	5302.16395	10452.89572	365991.9909
1322	0.937972769	1258.91534	0.156105502	1673.475805	1981.5848	2279.525873	2892.048927	3954.702585	5350.321718	10639.14129	925542.1633
1325	0.935849057	1258.801509	0.156091387	1678.285962	1988.242808	2288.460199	2906.252618	3980.94913	5399.138209	10831.25441	-1773286.938
1328	0.93373494	1258.688193	0.156077336	1683.101931	1994.915321	2297.423992	2920.53139	4007.425421	5448.627032	11029.51679	-454366.2959
1331	0.931630353	1258.575387	0.156063348	1687.923722	2001.602389	2306.417398	2934.885838	4034.134488	5498.802173	11234.22847	-261067.2098
1334	0.929535232	1258.463088	0.156049423	1692.751345	2008.304057	2315.440563	2949.316567	4061.079414	5549.678008	11445.70935	-183396.5369
1337	0.927449514	1258.351294	0.15603556	1697.584811	2015.020375	2324.493636	2963.824186	4088.263337	5601.269318	11664.30082	-141490.3452
1340	0.925373134	1258.24	0.15602176	1702.424131	2021.75139	2333.576765	2978.409312	4115.68945	5653.591303	11890.36763	-115269.2138
1343	0.923306031	1258.129203	0.156008021	1707.269314	2028.49715	2342.690101	2993.072566	4143.361007	5706.659596	12124.29991	-97315.23004
1346	0.921248143	1258.0189	0.155994344	1712.120373	2035.257704	2351.833795	3007.814579	4171.281314	5760.490279	12366.51543	-84251.03956
1349	0.919199407	1257.909088	0.155980727	1716.977317	2042.0331	2361.007997	3022.635986	4199.453744	5815.099901	12617.46206	-74318.45187
1352	0.917159763	1257.799763	0.155967171	1721.840157	2048.823389	2370.212862	3037.537432	4227.881724	5870.505492	12877.62055	-66511.97058
1355	0.915129151	1257.690923	0.155953674	1726.708904	2055.628618	2379.448543	3052.519565	4256.568749	5926.724582	13147.50763	-60214.9429
1358	0.913107511	1257.582563	0.155940238	1731.583569	2062.448837	2388.715196	3067.583044	4285.518376	5983.77522	13427.67939	-55028.16405
1361	0.911094783	1257.47468	0.15592686	1736.464163	2069.284095	2398.012976	3082.728532	4314.734227	6041.675992	13718.73512	-50681.79489
1364	0.909090909	1257.367273	0.155913542	1741.350696	2076.134444	2407.34204	3097.9567	4344.219991	6100.446045	14021.32162	-46986.88666
1367	0.90709583	1257.260337	0.155900282	1746.243179	2082.999931	2416.702547	3113.268229	4373.979426	6160.105101	14336.13795	-43807.18328
1370	0.905109489	1257.153869	0.15588708	1751.141623	2089.880609	2426.094656	3128.663804	4404.01636	6220.673487	14663.94087	-41041.95027
1373	0.903131828	1257.047866	0.155873935	1756.046039	2096.776527	2435.518527	3144.144119	4434.334692	6282.172151	15005.55086	-38615.10756
1376	0.901162791	1256.942326	0.155860848	1760.956438	2103.687735	2444.974321	3159.709875	4464.938396	6344.622694	15361.85902	-36468.12177
1379	0.899202321	1256.837244	0.155847818	1765.872831	2110.614286	2454.462202	3175.361783	4495.83152	6408.047386	15733.83482	-34555.22341
1382	0.897250362	1256.732619	0.155834845	1770.795229	2117.556229	2463.982332	3191.100558	4527.018188	6472.4692	16122.53489	-32840.10755
1385	0.895306859	1256.628448	0.155821928	1775.723643	2124.513617	2473.534876	3206.926928	4558.502605	6537.911836	16529.11308	-31293.6077
1388	0.893371758	1256.524726	0.155809066	1780.658084	2131.4865	2483.120001	3222.841623	4590.289054	6604.399753	16954.83187	-29892.02346
1391	0.891445004	1256.421452	0.15579626	1785.598562	2138.474932	2492.737873	3238.845387	4622.381904	6671.958195	17401.07548	-28615.89739
1394	0.889526542	1256.318623	0.155783509	1790.54509	2145.478963	2502.38866	3254.938969	4654.785606	6740.613227	17869.36487	-27449.10613
1397	0.887616321	1256.216235	0.155770813	1795.497678	2152.498646	2512.072531	3271.123127	4687.504698	6810.391766	18361.37514	-26378.17565
1400	0.885714286	1256.114286	0.155758171	1800.456337	2159.534034	2521.789657	3287.398628	4720.543807	6881.32162	18878.95545	-25391.75856
1403	0.883820385	1256.012773	0.155745584	1805.421078	2166.58518	2531.54021	3303.766248	4753.907651	6953.431518	19424.15231	-24480.23044
1406	0.881934566	1255.911693	0.15573305	1810.391914	2173.652135	2541.324362	3320.226771	4787.601042	7026.751157	19999.23663	-23635.37482
1409	0.880056778	1255.811043	0.155720569	1815.368854	2180.734955	2551.142287	3336.780989	4821.628887	7101.311236	20606.73528	-22850.13477
1412	0.878186969	1255.710822	0.155708142	1820.35191	2187.833691	2560.994161	3353.429706	4855.99619	7177.143503	21249.46827	-22118.41535
1415	0.876325088	1255.611025	0.155695767	1825.341094	2194.948398	2570.880159	3370.173733	4890.708056	7254.280798	21930.59248	-21434.92508
1418	0.874471086	1255.51165	0.155683445	1830.336417	2202.07913	2580.80046	3387.013891	4925.769693	7332.757102	22653.65353	-20795.04776
1421	0.872624912	1255.412695	0.155671174	1835.337889	2209.225941	2590.755242	3403.951009	4961.186415	7412.607586	23422.64753	-20194.7381
1424	0.870786517	1255.314157	0.155658956	1840.345523	2216.388886	2600.744686	3420.985928	4996.963643	7493.868663	24242.09493	-19630.43609
1427	0.868955851	1255.216034	0.155646788	1845.35933	2223.568018	2610.768972	3438.119497	5033.10691	7576.578043	25117.1295	-19098.99635
1430	0.867132867	1255.118322	0.155634672	1850.379321	2230.763394	2620.828283	3455.352576	5069.621862	7660.774795	26053.60594	-18597.62949
1433	0.865317516	1255.021019	0.155622606	1855.405508	2237.975068	2630.922804	3472.686034	5106.514262	7746.499404	27058.23107	-18123.85313
1436	0.863509749	1254.924123	0.155610591	1860.437903	2245.203095	2641.052719	3490.120751	5143.789993	7833.793838	28138.72468	-17675.45076
1439	0.861709521	1254.82763	0.155598626	1865.476515	2252.447532	2651.218215	3507.657616	5181.45506	7922.701615	29304.01831	-17250.43712
1442	0.859916782	1254.73154	0.155586711	1870.521358	2259.708435	2661.419479	3525.297531	5219.515597	8013.267881	30564.50272	-16847.02879
1445	0.858131488	1254.635848	0.155574845	1875.572443	2266.985858	2671.656702	3543.041405	5257.977862	8105.539476	31932.33854	-16463.61916
1448	0.856353591	1254.540552	0.155563029	1880.629781	2274.27986	2681.930072	3560.890161	5296.848252	8199.565026	33421.84991	-16098.75707
1451	0.854583046	1254.445651	0.155551261	1885.693385	2281.590496	2692.239782	3578.844731	5336.133297	8295.395021	35050.02798	-15751.12844
1454	0.852819807	1254.351142	0.155539542	1890.763264	2288.917824	2702.586026	3596.906059	5375.839666	8393.081907	36837.18195	-15419.54046
1457	0.85106383	1254.257021	0.155527871	1895.839433	2296.261901	2712.968997	3615.0751	5415.974175	8492.680184	38807.79058	-15102.90792
1460	0.849315068	1254.163288	0.155516248	1900.921901	2303.622784	2723.388892	3633.352821	5456.543786	8594.246505	40991.6301	-14800.24135
1463	0.847573479	1254.069938	0.155504672	1906.010681	2311.000532	2733.845908	3651.7402	5497.555613	8697.839784	43425.28923	-14510.63666
1466	0.845839018	1253.976971	0.155493144	1911.105784	2318.395201	2744.340244	3670.238226	5539.016926	8803.521311	46154.23564	-14233.26618
1469	0.844111641	1253.884384	0.155481664	1916.207223	2325.806851	2754.872099	3688.847901	5580.935155	8911.354871	49235.68324	-13967.3707
1472	0.842391304	1253.792174	0.15547023	1921.315009	2333.23554	2765.441676	3707.570239	5623.317894	9021.406875	52742.64725	-13712.25255
1475	0.840677966	1253.700339	0.155458842	1926.429154	2340.681327	2776.049177	3726.406266	5666.172909	9133.746494	56769.80375	-13467.26951
1478	0.838971583	1253.608877	0.155447501	1931.54967	2348.144271	2786.694806	3745.357021	5709.508137	9248.445804	61442.16566	-13231.82939
1481	0.837272113	1253.517785	0.155436205	1936.676569	2355.624431	2797.378771	3764.423556	5753.331696	9365.579943	66928.29174	-13005.38523
1484	0.835579515	1253.427062	0.155424956	1941.809863	2363.121867	2808.101278	3783.606934	5797.651885	9485.227273	73461.05571	-12787.43112
1487	0.833893746	1253.336705	0.155413751	1946.949563	2370.636638	2818.862536	3802.908233	5842.477197	9607.469552	81371.55575	-12577.49837
1490	0.832214765	1253.246711	0.155402592	1952.095682	2378.168806	2829.662756	3822.328544	5887.816314	9732.392128	91147.00704	-12375.15216
1493	0.830542532	1253.15708	0.155391478	1957.248232	2385.71843	2840.50215	3841.86897	5933.678123	9860.08413	103535.0517	-12179.98854
1496	0.828877005	1253.067807	0.155380408	1962.407224	2393.285572	2851.38093	3861.53063	5980.071715	9990.638684	119744.6021	-11991.63176
1499	0.827218145	1252.978893	0.155369383	1967.572671	2400.870292	2862.299313	3881.314656	6027.006392	10124.15314	141866.4524	-11809.73181
1502	0.825565912	1252.890333	0.155358401	1972.744586	2408.472651	2873.257515	3901.222192	6074.491677	10260.72931	173856.7899	-11633.96227
1505	0.823920266	1252.802126	0.155347464	1977.922979	2416.092712	2884.255753	3921.2544	6122.537316	10400.47372	224214.7941	-11464.01837
1508	0.822281167	1252.714271	0.15533657	1983.107864	2423.730536	2895.294249	3941.412455	6171.153286	10543.49793	315129.6079	-11299.6152
1511	0.820648577	1252.626764	0.155325719	1988.299253	2431.386185	2906.373223	3961.697545	6220.349803	10689.91876	528626.3331	-11140.48615
1514	0.819022457	1252.539604	0.155314911	1993.497157	2439.059722	2917.492898	3982.110876	6270.137329	10839.85867	1625560.88	-10986.38142
1517	0.817402769	1252.452788	0.155304146	1998.70159	2446.75121	2928.653499	4002.653668	6320.526577	10993.44606	-1523688.896	-10837.06675
1520	0.815789474	1252.366316	0.155293423	2003.912563	2454.460711	2939.855253	4023.327155	6371.528523	11150.81567	-520086.4633	-10692.32224
1523	0.814182534	1252.280184	0.155282743	2009.130088	2462.188289	2951.098388	4044.13259	6423.15441	11312.10895	-314048.3409	-10551.94121
1526	0.812581913	1252.194391	0.155272104	2014.354179	2469.934008	2962.383132	4065.071239	6475.415757	11477.4745	-225188.2411	-10415.7293
1529	0.810987574	1252.108934	0.155261508	2019.584847	2477.697931	2973.709718	4086.144386	6528.324371	11647.06851	-175675.7722	-10283.50348
1532	0.809399478	1252.023812	0.155250953	2024.822105	2485.480124	2985.078379	4107.353332	6581.892351	11821.05526	-144113.4376	-10155.09131
1535	0.80781759	1251.939023	0.155240439	2030.065966	2493.280649	2996.48935	4128.699392	6636.132101	11999.60766	-122237.7505	-10030.33015
1538	0.806241873	1251.854564	0.155229966	2035.316441	2501.099573	3007.942867	4150.183902	6691.056336	12182.90782	-106182.644	-9909.066469
1541	0.804672291	1251.770435	0.155219534	2040.573544	2508.93696	3019.439168	4171.808211	6746.678095	12371.14765	-93897.81619	-9791.155231
1544	0.803108808	1251.686632	0.155209142	2045.837287	2516.792877	3030.978495	4193.573691	6803.010752	12564.52956	-84194.73805	-9676.45931
1547	0.80155139	1251.603154	0.155198791	2051.107682	2524.667388	3042.561088	4215.481726	6860.068022	12763.26716	-76336.93597	-9564.848959
1550	0.8	1251.52	0.15518848	2056.384743	2532.560559	3054.187192	4237.533723	6917.863978	12967.58605	-69843.73029	-9456.201316
1553	0.798454604	1251.437167	0.155178209	2061.668481	2540.472458	3065.857052	4259.731104	6976.413057	13177.72472	-64388.054	-9350.399959
1556	0.796915167	1251.354653	0.155167977	2066.95891	2548.403151	3077.570916	4282.075314	7035.730078	13393.93539	-59739.62934	-9247.334486
1559	0.795381655	1251.272457	0.155157785	2072.256042	2556.352705	3089.329033	4304.567812	7095.830248	13616.48512	-55731.63051	-9146.900131
1562	0.793854033	1251.190576	0.155147631	2077.55989	2564.321187	3101.131655	4327.210081	7156.72918	13845.65682	-52240.23727	-9048.997413
1565	0.792332268	1251.10901	0.155137517	2082.870467	2572.308665	3112.979034	4350.003621	7218.442905	14081.75051	-49171.61613	-8953.531799
1568	0.790816327	1251.027755	0.155127442	2088.187786	2580.315207	3124.871426	4372.949953	7280.987884	14325.08462	-46453.36083	-8860.413409
1571	0.789306174	1250.946811	0.155117405	2093.511859	2588.340882	3136.809087	4396.050619	7344.381028	14575.99741	-44028.70643	-8769.556726
1574	0.787801779	1250.866175	0.155107406	2098.842699	2596.385757	3148.792277	4419.307181	7408.639705	14834.84852	-41852.52215	-8680.880338
1577	0.786303107	1250.785847	0.155097445	2104.180319	2604.449903	3160.821256	4442.721222	7473.781765	15102.02075	-39888.47604	-8594.306695
1580	0.784810127	1250.705823	0.155087522	2109.524732	2612.533388	3172.896288	4466.294348	7539.825549	15377.92188	-38106.99036	-8509.761882
1583	0.783322805	1250.626102	0.155077637	2114.875952	2620.636281	3185.017638	4490.028185	7606.789912	15662.9868	-36483.74174	-8427.175406
1586	0.78184111	1250.546683	0.155067789	2120.233991	2628.758654	3197.185572	4513.924383	7674.694236	15957.67978	-34998.54402	-8346.480004
1589	0.780365009	1250.467565	0.155057978	2125.598862	2636.900576	3209.400359	4537.984613	7743.558451	16262.49696	-33634.5045	-8267.611459
1592	0.778894472	1250.388744	0.155048204	2130.970578	2645.062118	3221.662271	4562.21057	7813.403057	16577.9692	-32377.37859	-8190.508427
1595	0.777429467	1250.310219	0.155038467	2136.349152	2653.243351	3233.971581	4586.603971	7884.249139	16904.66511	-31215.07047	-8115.112283
1598	0.775969962	1250.23199	0.155028767	2141.734598	2661.444347	3246.328565	4611.16656	7956.118392	17243.19451	-30137.24264	-8041.366966
1601	0.774515928	1250.154054	0.155019103	2147.126929	2669.665176	3258.733499	4635.900103	8029.033144	17594.2122	-29135.00763	-7969.218845
1604	0.773067332	1250.076409	0.155009475	2152.526158	2677.905911	3271.186664	4660.80639	8103.016375	17958.42219	-28200.6824	-7898.616588
1607	0.771624144	1249.999054	0.154999883	2157.932297	2686.166625	3283.688341	4685.887237	8178.091744	18336.58245	-27327.59093	-7829.511038
1610	0.770186335	1249.921988	0.154990326	2163.345362	2694.44739	3296.238814	4711.144487	8254.283614	18729.51012	-26509.90452	-7761.855101
1613	0.768753875	1249.845208	0.154980806	2168.765363	2702.748279	3308.83837	4736.580006	8331.617079	19138.08744	-25742.51148	-7695.603638
1616	0.767326733	1249.768713	0.15497132	2174.192316	2711.069366	3321.487296	4762.19569	8410.117988	19563.26837	-25020.91016	-7630.713364
1619	0.76590488	1249.692502	0.15496187	2179.626234	2719.410724	3334.185885	4787.993458	8489.81298	20006.08599	-24341.1206	-7567.142758
1622	0.764488286	1249.616572	0.154952455	2185.067129	2727.772429	3346.934429	4813.975259	8570.729507	20467.6609	-23699.61108	-7504.851965
1625	0.763076923	1249.540923	0.154943074	2190.515016	2736.154553	3359.733222	4840.14307	8652.895871	20949.21071	-23093.23671	-7443.802725
1628	0.761670762	1249.465553	0.154933729	2195.969907	2744.557172	3372.582564	4866.498894	8736.341256	21452.06073	-22519.18795	-7383.958284
1631	0.760269773	1249.39046	0.154924417	2201.431817	2752.980362	3385.482753	4893.044767	8821.09576	21977.65616	-21974.94699	-7325.283325
1634	0.758873929	1249.315643	0.15491514	2206.900758	2761.424198	3398.434093	4919.782751	8907.190434	22527.57599	-21458.25091	-7267.743899
1637	0.757483201	1249.2411	0.154905896	2212.376745	2769.888756	3411.436888	4946.714938	8994.657316	23103.54879	-20967.0602	-7211.307358
1640	0.756097561	1249.166829	0.154896687	2217.859791	2778.374112	3424.491446	4973.843453	9083.529478	23707.47092	-20499.53182	-7155.942294
1643	0.754716981	1249.09283	0.154887511	2223.34991	2786.880343	3437.598075	5001.17045	9173.841061	24341.42735	-20053.99615	-7101.618481
1646	0.753341434	1249.019101	0.154878369	2228.847116	2795.407527	3450.757089	5028.698116	9265.627319	25007.7157	-19628.93703	-7048.306817
1649	0.751970891	1248.94564	0.154869259	2234.351421	2803.95574	3463.968802	5056.428668	9358.924671	25708.87411	-19222.97454	-6995.979276
